B
10.81
2.34
(Energy (eV),f1,f2)
 
6.8501      -0.72932      0.82028
6.9891      -0.7502      0.88209
7.1091      -0.75111      0.94239
7.28011      -0.75588      0.97237
7.51011      -0.78162      1.06732
7.77311      -0.80176      1.16988
7.95812      -0.80384      1.27299
8.31012      -0.77692      1.42157
8.78113      -0.72691      1.62643
9.42814      -0.61438      1.89339
9.96714      -0.47915      2.1069
10.40115      -0.34204      2.25569
10.92416      -0.14321      2.42489
11.83117      0.15667      2.44534
12.57418      0.31744      2.54685
13.4772      0.56587      2.72668
14.25121      0.82959      2.76296
14.83122      0.96702      2.67771
16.68724      1.3463      2.90305
18.39527      1.81952      2.89561
21.23031      2.54839      2.67061
23.13134      2.96347      2.37077
23.57334      3.02651      2.26347
24.01535      3.06787      2.1861
24.45736      3.11281      2.10788
24.89936      3.14765      2.0288
25.34137      3.17889      1.94957
25.78337      3.20637      1.87166
26.22538      3.22995      1.79591
26.66739      3.24948      1.72157
27.10939      3.27329      1.65191
27.5514      3.232      1.51002
28.05041      3.20487      1.50983
28.50141      3.21503      1.47066
29.03542      3.2199      1.42804
29.51943      3.22759      1.38052
30.01944      3.23387      1.33098
30.53744      3.22808      1.2794
31.07345      3.21984      1.26231
31.54746      3.24992      1.18628
32.03647      3.22119      1.15299
32.54147      3.21357      1.09151
33.06148      3.21619      1.06311
33.50849      3.2001      1.02494
34.06049      3.18593      0.97532
34.5355      3.17908      0.95097
35.02351      3.15633      0.92623
35.52452      3.14534      0.91069
36.04152      3.13713      0.88493
36.57253      3.13457      0.85286
37.00954      3.123      0.84681
37.57055      3.11741      0.80818
38.03155      3.11094      0.79643
38.50356      3.10311      0.76414
38.98757      3.0869      0.74963
39.48457      3.07616      0.72784
39.99458      3.06385      0.70303
40.51659      3.04586      0.69384
41.0536      3.03184      0.67891
41.6046      3.0199      0.66889
42.02761      3.00825      0.663
42.60562      2.9994      0.65224
43.04962      2.99381      0.64816
43.50263      2.99164      0.64855
44.12164      2.98978      0.63569
44.59765      2.98808      0.62355
45.08465      2.98568      0.61496
45.58166      2.98235      0.6039
46.08967      2.97811      0.59366
46.60968      2.973      0.57956
47.14168      2.96945      0.56953
47.50269      2.96303      0.56449
48.0547      2.96035      0.55423
48.62071      2.9514      0.54418
49.00471      2.94832      0.53563
49.59272      2.94004      0.52671
50.19473      2.93336      0.52359
51.02174      2.93169      0.51515
51.65875      2.92837      0.50654
52.09276      2.92455      0.4988
52.53476      2.92344      0.49425
52.98377      2.9218      0.48653
53.67178      2.9184      0.47632
53.90478      2.91697      0.47241
54.61779      2.91203      0.46297
55.1028      2.91143      0.45371
55.59681      2.9068      0.44476
55.84781      2.90431      0.44015
56.10081      2.90163      0.43761
56.61282      2.89937      0.42936
57.13483      2.89282      0.42149
57.66584      2.88928      0.41517
58.20785      2.88521      0.40698
58.75885      2.88033      0.40038
59.03886      2.87567      0.39604
59.60687      2.86978      0.38898
60.18087      2.86263      0.38063
61.07089      2.85325      0.37015
61.6809      2.84468      0.36551
62.3009      2.83946      0.35986
62.93091      2.8332      0.3526
63.58092      2.82673      0.34947
64.24093      2.81905      0.34457
64.91094      2.81496      0.34013
65.77095      2.79521      0.33697
66.12096      2.79477      0.33618
66.84097      2.78895      0.33612
68.31099      2.78374      0.32748
69.46101      2.77248      0.31589
70.24102      2.76679      0.32587
71.05103      2.76107      0.31455
71.87104      2.74768      0.31786
72.72106      2.74594      0.31102
73.58107      2.74255      0.30637
74.46108      2.73817      0.30523
75.37109      2.7334      0.30172
76.30111      2.72738      0.30001
77.25112      2.71997      0.29748
78.22114      2.71105      0.29659
79.22115      2.70839      0.29619
80.25117      2.70497      0.29093
81.30118      2.69994      0.28708
82.3812      2.69384      0.2845
83.49121      2.68649      0.27999
84.63123      2.68598      0.27537
85.80125      2.67581      0.27234
87.00126      2.67258      0.26927
88.09128      2.66833      0.26594
89.3513      2.6623      0.26162
90.66132      2.65558      0.25702
91.67133      2.6472      0.25328
92.52134      2.64714      0.2499
93.57136      2.63684      0.2457
94.64137      2.63548      0.24122
95.74139      2.62306      0.2366
96.86141      2.61984      0.23156
98.01142      2.60483      0.22623
99.18144      2.59928      0.22054
100.39146      2.59332      0.22003
101.62148      2.57384      0.21222
102.89149      2.56529      0.21023
104.18151      2.55487      0.20589
105.51153      2.54345      0.20232
106.88155      2.53084      0.20115
108.28157      2.52993      0.19617
109.72159      2.51432      0.19281
111.19161      2.49655      0.18917
112.71164      2.49198      0.18543
114.27166      2.47103      0.18171
115.87168      2.44776      0.17831
117.52171      2.43829      0.17403
119.21173      2.42693      0.16825
120.96176      2.39741      0.16394
122.75178      2.38196      0.15961
123.9818      2.35898      0.15644
125.87183      2.34005      0.15338
127.81186      2.29964      0.15702
129.82188      2.2753      0.15694
131.89191      2.26815      0.15656
134.76196      2.22125      0.14648
136.99199      2.1871      0.14119
138.53201      2.17012      0.13729
140.09203      2.12869      0.13361
141.53205      2.10334      0.12983
142.83207      2.07153      0.12693
144.16209      2.06233      0.13146
145.52211      2.02812      0.12841
146.90213      1.99207      0.12774
148.30215      1.95408      0.12509
149.73217      1.94021      0.12278
151.2022      1.89936      0.12333
153.25222      1.84281      0.12051
155.17225      1.77814      0.12005
156.74228      1.75761      0.11609
158.3423      1.70688      0.11659
159.97232      1.65362      0.11313
161.64235      1.56773      0.11324
163.35237      1.50871      0.11482
165.0924      1.44667      0.10878
166.86242      1.34935      0.11145
168.68245      1.28045      0.11071
170.54248      1.1746      0.1086
172.4325      1.02924      0.10834
174.37253      0.91219      0.1049
176.36256      0.71779      0.1034
178.39259      0.51409      0.10465
180.47262      0.26307      0.10373
182.59265      -0.11541      0.10114
183.95267      -0.4295      0.10402
184.49268      -0.58912      0.10314
185.04269      -0.75068      0.10146
185.60269      -0.95398      0.10235
186.1627      -1.23967      0.10817
186.72271      -1.60921      0.12854
187.28272      -2.06406      0.26752
187.85273      -2.56527      0.64987
188.42274      -2.86762      1.41046
188.99274      -2.92621      1.989
189.57275      -2.8198      2.72111
190.15276      -2.54503      3.1066
190.74277      -2.225      3.5008
191.33278      -1.90085      3.72567
191.92279      -1.65758      3.76569
192.5228      -1.53966      3.74436
193.1228      -1.54927      3.87576
193.72281      -1.55891      4.11856
194.33282      -1.48159      4.44914
194.94283      -1.35936      4.76214
195.55284      -1.14725      5.10969
196.17285      -0.8437      5.38637
196.79286      -0.53624      5.58134
197.42287      -0.22487      5.73407
198.05288      0.04526      5.82956
198.69288      0.36443      5.94474
199.32289      0.6418      6.05585
199.9729      0.96899      6.15078
200.61291      1.30027      6.22736
201.27292      1.68279      6.26373
201.92293      2.02301      6.24309
202.58294      2.41509      6.18453
203.25295      2.81244      6.06343
203.91296      3.16659      5.89657
204.59297      3.47753      5.64616
205.26298      3.74343      5.304
205.95299      3.96441      5.04606
206.633      4.08917      4.63308
207.32301      4.11652      4.36798
208.02302      4.14437      4.02054
208.72303      4.07177      3.76563
209.43304      3.9983      3.5433
210.14305      3.92354      3.36457
210.85306      3.7962      3.22421
211.57307      3.66722      3.13573
212.29308      3.58821      3.07442
213.02309      3.45585      3.03382
213.7631      3.37445      3.02277
214.50311      3.34476      3.01772
215.99314      3.28373      3.05118
217.51316      3.27552      3.08499
219.05318      3.32206      3.10447
220.6032      3.36924      3.08904
222.19323      3.41799      3.03973
223.79325      3.46739      2.97907
225.42327      3.51809      2.88893
227.0733      3.51028      2.82667
228.75332      3.50203      2.78412
230.45335      3.493      2.75028
232.17337      3.48314      2.73488
233.9234      3.4727      2.72765
235.70342      3.46165      2.73727
237.51345      3.44993      2.75604
239.34347      3.50329      2.77686
241.2135      3.55825      2.78886
243.10353      3.61423      2.79728
245.02356      3.67155      2.78068
246.97359      3.73022      2.76459
248.96361      3.79058      2.7285
250.97364      3.77935      2.70006
253.02367      3.84134      2.67047
254.06369      3.87299      2.65002
255.1037      3.82967      2.63421
256.16372      3.86156      2.63798
257.22373      3.89359      2.6255
259.37377      3.95895      2.62843
261.5638      4.02609      2.60432
263.79383      4.09503      2.57907
266.05386      4.08382      2.54177
268.3539      4.15474      2.49201
270.70393      4.22782      2.43523
273.08396      4.21644      2.37842
275.514      4.29182      2.31758
277.98404      4.27995      2.26302
280.50407      4.26711      2.21436
283.06411      4.34535      2.15419
285.67415      4.33169      2.12629
288.33419      4.3168      2.1018
291.03423      4.3003      2.07587
293.79427      4.28265      2.0477
296.60431      4.36497      2.01905
299.47435      4.34636      1.97553
302.39439      4.32602      1.97098
305.37443      4.41171      1.96805
308.41448      4.39023      1.92402
311.51452      4.36696      1.87779
314.67457      4.456      1.84753
321.19466      4.40449      1.81298
327.99476      4.46883      1.77388
335.08486      4.53456      1.72054
342.49497      4.54513      1.6513
350.23508      4.56606      1.58665
358.3252      4.58535      1.52302
371.20539      4.60452      1.43255
380.31552      4.60966      1.36855
385.03559      4.61018      1.33772
394.84573      4.60704      1.28803
405.16588      4.58962      1.23501
416.04604      4.59775      1.20037
427.52621      4.59347      1.15364
439.65638      4.60133      1.1219
444.37645      4.59357      1.10282
450.84655      4.604      1.0953
457.49664      4.60075      1.0723
464.34674      4.6052      1.05738
471.41684      4.60291      1.0488
478.69695      4.61132      1.00476
486.20706      4.61258      0.97925
493.94717      4.6114      0.95719
501.94729      4.59918      0.91867
510.21741      4.57175      0.88912
514.44747      4.5471      0.86728
518.74753      4.52717      0.85389
523.12759      4.47764      0.84311
527.57766      4.4321      0.8254
532.10773      4.23737      0.8625
533.25774      4.21305      0.99092
534.40776      4.25431      1.0677
535.55778      4.2925      1.07892
536.71779      4.29782      1.0836
537.87781      4.29973      1.1417
539.04783      4.32851      1.19361
540.22784      4.38116      1.24935
541.40786      4.4409      1.25144
542.58788      4.49086      1.2569
543.77789      4.53446      1.25218
544.97791      4.57849      1.24743
546.17793      4.62277      1.22884
547.37795      4.66039      1.20313
548.58796      4.69143      1.17025
549.80798      4.71232      1.13012
551.028      4.71924      1.0896
552.25802      4.70866      1.04872
553.48804      4.69431      1.03572
554.72805      4.68697      1.02616
555.96807      4.67584      1.00222
557.21809      4.66465      1.01032
558.47811      4.66058      1.00409
559.73813      4.66355      1.01947
561.50815      4.66399      1.00047
564.5782      4.66364      0.99672
567.67824      4.67037      0.99283
572.92832      4.68141      0.97719
578.2684      4.69191      0.96076
583.71847      4.69821      0.94357
589.26855      4.70384      0.92955
594.91864      4.70871      0.91479
600.68872      4.71722      0.90348
605.59879      4.71848      0.89291
612.11889      4.72552      0.87766
618.77898      4.73171      0.86593
625.59908      4.73724      0.849
632.55918      4.74166      0.83106
639.67929      4.74985      0.81682
646.95939      4.75233      0.80171
654.4095      4.7537      0.78569
662.03961      4.75394      0.76872
669.83972      4.75272      0.7507
677.82984      4.75545      0.74221
686.01996      4.75159      0.72767
694.40008      4.75155      0.71774
702.99021      4.75008      0.7071
711.79033      4.75283      0.69568
720.82046      4.75428      0.68946
730.0806      4.76036      0.68269
739.59074      4.76527      0.66903
749.34088      4.76864      0.66087
759.35102      4.77713      0.65203
769.64117      4.78445      0.63565
779.76132      4.79183      0.62441
789.69146      4.79953      0.61163
799.88161      4.79869      0.59061
810.34176      4.80378      0.57585
821.07192      4.80738      0.56008
832.09208      4.80947      0.54326
843.41224      4.80989      0.52531
855.04241      4.80848      0.51459
867.00259      4.80516      0.50307
879.30277      4.79973      0.49068
891.95295      4.81031      0.47736
899.72306      4.81976      0.47637
   907.943      5.27049     0.377113    
   922.628      5.26617     0.365835    
   937.551      5.26180     0.355111    
   952.715      5.25754     0.344749    
   968.124      5.25338     0.334727    
   983.783      5.24931     0.324999    
   999.695      5.24536     0.315525    
   1015.86      5.24154     0.306299    
   1032.29      5.23778     0.297006    
   1048.99      5.23388     0.287954    
   1065.96      5.22991     0.279137    
   1083.20      5.22591     0.270598    
   1100.72      5.22191     0.262319    
   1118.52      5.21792     0.254289    
   1136.61      5.21394     0.246507    
   1155.00      5.20998     0.238961    
   1173.68      5.20605     0.231645    
   1192.66      5.20216     0.224555    
   1211.95      5.19831     0.217682    
   1231.55      5.19450     0.211021    
   1251.47      5.19075     0.204548    
   1271.72      5.18704     0.198261    
   1292.29      5.18336     0.192151    
   1313.19      5.17972     0.186228    
   1334.43      5.17612     0.180488    
   1356.01      5.17257     0.174925    
   1377.94      5.16907     0.169534    
   1400.23      5.16562     0.164310    
   1422.88      5.16223     0.159248    
   1445.89      5.15890     0.154338    
   1469.28      5.15563     0.149571    
   1493.04      5.15243     0.144939    
   1517.19      5.14929     0.140388    
   1541.73      5.14615     0.135973    
   1566.67      5.14305     0.131697    
   1592.01      5.13999     0.127556    
   1617.76      5.13698     0.123544    
   1643.92      5.13402     0.119658    
   1670.51      5.13110     0.115894    
   1697.53      5.12824     0.112248    
   1724.99      5.12544     0.108716    
   1752.89      5.12270     0.105266    
   1781.24      5.11999     0.101916    
   1810.05      5.11732     0.986663E-01
   1839.32      5.11469     0.955176E-01
   1869.07      5.11210     0.924686E-01
   1899.30      5.10955     0.895166E-01
   1930.02      5.10705     0.866612E-01
   1961.24      5.10459     0.838971E-01
   1992.96      5.10216     0.812206E-01
   2025.20      5.09981     0.787027E-01
   2057.95      5.09757     0.761739E-01
   2091.24      5.09532     0.737227E-01
   2125.06      5.09311     0.713481E-01
   2159.43      5.09094     0.690489E-01
   2194.36      5.08881     0.668140E-01
   2229.85      5.08672     0.646543E-01
   2265.92      5.08468     0.625607E-01
   2302.57      5.08267     0.605286E-01
   2339.81      5.08070     0.585635E-01
   2377.66      5.07877     0.566582E-01
   2416.11      5.07689     0.548123E-01
   2455.19      5.07503     0.530246E-01
   2494.90      5.07322     0.512928E-01
   2535.26      5.07144     0.496148E-01
   2576.26      5.06971     0.479897E-01
   2617.93      5.06800     0.464157E-01
   2660.27      5.06633     0.448913E-01
   2703.30      5.06470     0.434149E-01
   2747.03      5.06310     0.419853E-01
   2791.46      5.06154     0.406005E-01
   2836.61      5.06001     0.392606E-01
   2882.49      5.05851     0.379625E-01
   2929.11      5.05705     0.367055E-01
   2976.48      5.05561     0.354884E-01
   3024.63      5.05421     0.343104E-01
   3073.55      5.05284     0.331697E-01
   3123.26      5.05150     0.320658E-01
   3173.78      5.05019     0.309971E-01
   3225.11      5.04891     0.299625E-01
   3277.27      5.04765     0.289616E-01
   3330.28      5.04643     0.279922E-01
   3384.15      5.04523     0.270543E-01
   3438.88      5.04406     0.261471E-01
   3494.50      5.04292     0.252687E-01
   3551.02      5.04180     0.244190E-01
   3608.46      5.04071     0.235963E-01
   3666.82      5.03964     0.228007E-01
   3726.13      5.03860     0.220309E-01
   3786.40      5.03758     0.212856E-01
   3847.64      5.03658     0.205649E-01
   3909.87      5.03561     0.198682E-01
   3973.11      5.03466     0.191937E-01
   4037.38      5.03373     0.185476E-01
   4102.68      5.03283     0.179165E-01
   4169.03      5.03195     0.173072E-01
   4236.46      5.03109     0.167181E-01
   4304.98      5.03024     0.161487E-01
   4374.62      5.02942     0.155980E-01
   4445.37      5.02862     0.150659E-01
   4517.27      5.02784     0.145518E-01
   4590.33      5.02708     0.140547E-01
   4664.58      5.02633     0.135741E-01
   4740.03      5.02560     0.131094E-01
   4816.69      5.02490     0.126607E-01
   4894.60      5.02420     0.122266E-01
   4973.77      5.02353     0.118072E-01
   5054.21      5.02287     0.114019E-01
   5135.96      5.02223     0.110101E-01
   5219.03      5.02161     0.106315E-01
   5303.44      5.02100     0.102655E-01
   5389.22      5.02040     0.991185E-02
   5476.39      5.01982     0.957001E-02
   5564.97      5.01926     0.923971E-02
   5654.98      5.01871     0.892048E-02
   5746.44      5.01817     0.861194E-02
   5839.39      5.01765     0.831380E-02
   5933.83      5.01714     0.802574E-02
   6029.81      5.01665     0.774736E-02
   6127.33      5.01616     0.747830E-02
   6226.44      5.01569     0.721834E-02
   6327.15      5.01523     0.696712E-02
   6429.48      5.01478     0.672443E-02
   6533.48      5.01435     0.648984E-02
   6639.15      5.01392     0.626329E-02
   6746.54      5.01351     0.604440E-02
   6855.65      5.01311     0.583287E-02
   6966.54      5.01271     0.562839E-02
   7079.22      5.01233     0.543100E-02
   7193.72      5.01196     0.524026E-02
   7310.07      5.01160     0.505601E-02
   7428.31      5.01124     0.487800E-02
   7548.45      5.01090     0.470595E-02
   7670.54      5.01056     0.453990E-02
   7794.61      5.01024     0.437949E-02
   7920.68      5.00992     0.422456E-02
   8048.79      5.00961     0.407489E-02
   8178.98      5.00931     0.393020E-02
   8311.26      5.00902     0.379062E-02
   8445.69      5.00873     0.365578E-02
   8582.29      5.00845     0.352547E-02
   8721.11      5.00818     0.339979E-02
   8862.16      5.00792     0.327838E-02
   9005.50      5.00766     0.316109E-02
   9151.16      5.00741     0.304783E-02
   9299.17      5.00717     0.293857E-02
   9449.58      5.00693     0.283291E-02
   9602.42      5.00670     0.273103E-02
   9757.73      5.00648     0.263256E-02
   9915.55      5.00626     0.253775E-02
   10075.9      5.00605     0.244607E-02
   10238.9      5.00584     0.235757E-02
   10404.5      5.00564     0.227215E-02
   10572.8      5.00545     0.218970E-02
   10743.8      5.00526     0.211014E-02
   10917.6      5.00507     0.203335E-02
   11094.2      5.00489     0.195925E-02
   11273.6      5.00472     0.188774E-02
   11455.9      5.00455     0.181875E-02
   11641.2      5.00438     0.175219E-02
   11829.5      5.00422     0.168796E-02
   12020.8      5.00406     0.162601E-02
   12215.3      5.00391     0.156625E-02
   12412.8      5.00376     0.150860E-02
   12613.6      5.00362     0.145300E-02
   12817.6      5.00348     0.139938E-02
   13025.0      5.00334     0.134766E-02
   13235.6      5.00321     0.129780E-02
   13449.7      5.00308     0.124972E-02
   13667.2      5.00295     0.120336E-02
   13888.3      5.00283     0.115867E-02
   14112.9      5.00271     0.111559E-02
   14341.2      5.00259     0.107406E-02
   14573.1      5.00248     0.103404E-02
   14808.9      5.00237     0.995465E-03
   15048.4      5.00227     0.958296E-03
   15291.8      5.00216     0.922482E-03
   15539.1      5.00206     0.887977E-03
   15790.4      5.00196     0.854736E-03
   16045.8      5.00187     0.822718E-03
   16305.4      5.00178     0.791879E-03
   16569.1      5.00169     0.762180E-03
   16837.1      5.00160     0.733582E-03
   17109.4      5.00152     0.706047E-03
   17386.1      5.00143     0.679540E-03
   17667.4      5.00135     0.654024E-03
   17953.1      5.00128     0.629466E-03
   18243.5      5.00120     0.605832E-03
   18538.6      5.00113     0.583093E-03
   18838.4      5.00105     0.561215E-03
   19143.1      5.00099     0.540171E-03
   19452.7      5.00092     0.519930E-03
   19767.4      5.00085     0.500466E-03
   20087.1      5.00079     0.481560E-03
   20412.0      5.00073     0.463572E-03
   20742.1      5.00067     0.446275E-03
   21077.6      5.00061     0.429641E-03
   21418.5      5.00055     0.413645E-03
   21765.0      5.00050     0.398260E-03
   22117.0      5.00044     0.383463E-03
   22474.7      5.00039     0.369231E-03
   22838.2      5.00034     0.355541E-03
   23207.6      5.00029     0.342372E-03
   23583.0      5.00025     0.329702E-03
   23964.4      5.00020     0.317515E-03
   24352.0      5.00015     0.305788E-03
   24745.9      5.00011     0.294506E-03
   25146.2      5.00007     0.283650E-03
   25552.9      5.00003     0.273204E-03
   25966.2      4.99999     0.263151E-03
   26386.1      4.99995     0.253477E-03
   26812.9      4.99991     0.244167E-03
   27246.6      4.99988     0.235206E-03
   27687.3      4.99984     0.226582E-03
   28135.1      4.99981     0.218281E-03
   28590.2      4.99977     0.210290E-03
   29052.6      4.99974     0.202598E-03
   29522.5      4.99971     0.195192E-03
   30000.0      4.99968     0.188063E-03
