B
10.81
2.34
(Energy (eV),f1,f2)
 
6.8501      -0.82309      0.92575
6.9891      -0.84666      0.99551
7.1091      -0.84768      1.06355
7.28011      -0.85306      1.09739
7.51011      -0.88211      1.20454
7.77311      -0.90485      1.32029
7.95812      -0.90719      1.43666
8.31012      -0.87681      1.60434
8.78113      -0.82037      1.83554
9.42814      -0.69337      2.13683
9.96714      -0.54076      2.37779
10.40115      -0.38601      2.5457
10.92416      -0.16162      2.73667
11.83117      0.17681      2.75974
12.57418      0.35826      2.8743
13.4772      0.63863      3.07725
14.25121      0.93625      3.1182
14.83122      1.09135      3.02199
16.68724      1.51939      3.2763
18.39527      2.05345      3.2679
21.23031      2.87604      3.01398
23.13134      3.34449      2.67559
23.57334      3.41563      2.55449
24.01535      3.46231      2.46717
24.45736      3.51303      2.37889
24.89936      3.55235      2.28965
25.34137      3.5876      2.20023
25.78337      3.61862      2.1123
26.22538      3.64523      2.02682
26.66739      3.66727      1.94291
27.10939      3.69414      1.8643
27.5514      3.64754      1.70416
28.05041      3.61693      1.70395
28.50141      3.62839      1.65975
29.03542      3.63388      1.61164
29.51943      3.64257      1.55802
30.01944      3.64966      1.50211
30.53744      3.64312      1.44389
31.07345      3.63382      1.42461
31.54746      3.66777      1.3388
32.03647      3.63534      1.30124
32.54147      3.62674      1.23185
33.06148      3.62971      1.1998
33.50849      3.61155      1.15672
34.06049      3.59555      1.10072
34.5355      3.58782      1.07324
35.02351      3.56214      1.04532
35.52452      3.54974      1.02778
36.04152      3.54048      0.99871
36.57253      3.53758      0.96252
37.00954      3.52453      0.95569
37.57055      3.51822      0.91209
38.03155      3.51092      0.89883
38.50356      3.50208      0.86239
38.98757      3.48379      0.84601
39.48457      3.47166      0.82142
39.99458      3.45778      0.79341
40.51659      3.43747      0.78305
41.0536      3.42165      0.76619
41.6046      3.40817      0.75489
42.02761      3.39502      0.74824
42.60562      3.38504      0.7361
43.04962      3.37873      0.73149
43.50263      3.37628      0.73194
44.12164      3.37418      0.71742
44.59765      3.37226      0.70372
45.08465      3.36955      0.69403
45.58166      3.36579      0.68155
46.08967      3.36101      0.66999
46.60968      3.35524      0.65407
47.14168      3.35124      0.64275
47.50269      3.34399      0.63706
48.0547      3.34097      0.62549
48.62071      3.33086      0.61415
49.00471      3.32739      0.6045
49.59272      3.31804      0.59443
50.19473      3.3105      0.5909
51.02174      3.30862      0.58138
51.65875      3.30487      0.57166
52.09276      3.30056      0.56293
52.53476      3.29931      0.55779
52.98377      3.29745      0.54909
53.67178      3.29362      0.53756
53.90478      3.292      0.53315
54.61779      3.28644      0.52249
55.1028      3.28575      0.51204
55.59681      3.28053      0.50194
55.84781      3.27772      0.49674
56.10081      3.2747      0.49387
56.61282      3.27214      0.48456
57.13483      3.26475      0.47568
57.66584      3.26076      0.46854
58.20785      3.25616      0.4593
58.75885      3.25066      0.45186
59.03886      3.2454      0.44696
59.60687      3.23875      0.43899
60.18087      3.23068      0.42956
61.07089      3.22009      0.41774
61.6809      3.21043      0.4125
62.3009      3.20453      0.40613
62.93091      3.19747      0.39793
63.58092      3.19016      0.3944
64.24093      3.1815      0.38887
64.91094      3.17688      0.38386
65.77095      3.15459      0.3803
66.12096      3.15409      0.3794
66.84097      3.14753      0.37933
68.31099      3.14165      0.36958
69.46101      3.12895      0.3565
70.24102      3.12251      0.36776
71.05103      3.11606      0.35499
71.87104      3.10095      0.35873
72.72106      3.09899      0.35101
73.58107      3.09516      0.34576
74.46108      3.09022      0.34447
75.37109      3.08484      0.34052
76.30111      3.07804      0.33858
77.25112      3.06968      0.33572
78.22114      3.05961      0.33472
79.22115      3.05661      0.33427
80.25117      3.05275      0.32834
81.30118      3.04708      0.32399
82.3812      3.04019      0.32108
83.49121      3.0319      0.31599
84.63123      3.03132      0.31078
85.80125      3.01984      0.30735
87.00126      3.01619      0.30389
88.09128      3.0114      0.30013
89.3513      3.0046      0.29526
90.66132      2.99701      0.29007
91.67133      2.98756      0.28584
92.52134      2.98748      0.28203
93.57136      2.97586      0.27729
94.64137      2.97433      0.27224
95.74139      2.96031      0.26703
96.86141      2.95667      0.26134
98.01142      2.93973      0.25532
99.18144      2.93348      0.2489
100.39146      2.92675      0.24831
101.62148      2.90477      0.23951
102.89149      2.89511      0.23726
104.18151      2.88336      0.23236
105.51153      2.87046      0.22833
106.88155      2.85623      0.22701
108.28157      2.85521      0.22139
109.72159      2.83759      0.2176
111.19161      2.81753      0.21349
112.71164      2.81237      0.20927
114.27166      2.78874      0.20507
115.87168      2.76247      0.20124
117.52171      2.75178      0.1964
119.21173      2.73896      0.18988
120.96176      2.70565      0.18501
122.75178      2.68821      0.18013
123.9818      2.66228      0.17655
125.87183      2.64091      0.1731
127.81186      2.59531      0.1772
129.82188      2.56784      0.17712
131.89191      2.55977      0.17669
134.76196      2.50684      0.16531
136.99199      2.4683      0.15934
138.53201      2.44914      0.15495
140.09203      2.40238      0.15079
141.53205      2.37376      0.14652
142.83207      2.33787      0.14325
144.16209      2.32749      0.14836
145.52211      2.28888      0.14492
146.90213      2.24819      0.14417
148.30215      2.20532      0.14117
149.73217      2.18967      0.13856
151.2022      2.14356      0.13918
153.25222      2.07974      0.13601
155.17225      2.00676      0.13549
156.74228      1.98358      0.13101
158.3423      1.92634      0.13158
159.97232      1.86623      0.12767
161.64235      1.7693      0.1278
163.35237      1.70268      0.12958
165.0924      1.63267      0.12277
166.86242      1.52284      0.12578
168.68245      1.44508      0.12494
170.54248      1.32562      0.12256
172.4325      1.16157      0.12227
174.37253      1.02948      0.11839
176.36256      0.81008      0.11669
178.39259      0.58019      0.11811
180.47262      0.2969      0.11706
182.59265      -0.13025      0.11414
183.95267      -0.48472      0.11739
184.49268      -0.66487      0.1164
185.04269      -0.8472      0.11451
185.60269      -1.07663      0.11551
186.1627      -1.39905      0.12208
186.72271      -1.8161      0.14506
187.28272      -2.32944      0.30191
187.85273      -2.89509      0.73342
188.42274      -3.23632      1.59181
188.99274      -3.30244      2.24473
189.57275      -3.18235      3.07096
190.15276      -2.87225      3.50602
190.74277      -2.51107      3.95091
191.33278      -2.14525      4.20469
191.92279      -1.8707      4.24985
192.5228      -1.73761      4.22578
193.1228      -1.74846      4.37407
193.72281      -1.75934      4.64809
194.33282      -1.67208      5.02117
194.94283      -1.53413      5.37441
195.55284      -1.29476      5.76665
196.17285      -0.95218      6.0789
196.79286      -0.60518      6.29894
197.42287      -0.25378      6.4713
198.05288      0.05108      6.57907
198.69288      0.41128      6.70906
199.32289      0.72432      6.83445
199.9729      1.09357      6.94159
200.61291      1.46745      7.02802
201.27292      1.89915      7.06907
201.92293      2.28311      7.04578
202.58294      2.7256      6.97968
203.25295      3.17404      6.84301
203.91296      3.57372      6.6547
204.59297      3.92465      6.3721
205.26298      4.22473      5.98594
205.95299      4.47412      5.69484
206.633      4.61492      5.22876
207.32301      4.64579      4.92958
208.02302      4.67722      4.53746
208.72303      4.59528      4.24979
209.43304      4.51236      3.99887
210.14305      4.428      3.79715
210.85306      4.28428      3.63875
211.57307      4.13872      3.53889
212.29308      4.04956      3.46971
213.02309      3.90017      3.42388
213.7631      3.80831      3.41141
214.50311      3.7748      3.40571
215.99314      3.70592      3.44347
217.51316      3.69666      3.48163
219.05318      3.74919      3.50361
220.6032      3.80243      3.4862
222.19323      3.85744      3.43055
223.79325      3.9132      3.36209
225.42327      3.97041      3.26037
227.0733      3.9616      3.1901
228.75332      3.9523      3.14208
230.45335      3.9421      3.10388
232.17337      3.93097      3.08651
233.9234      3.91919      3.07835
235.70342      3.90672      3.0892
237.51345      3.89349      3.11038
239.34347      3.95372      3.13388
241.2135      4.01574      3.14743
243.10353      4.07892      3.15693
245.02356      4.1436      3.13819
246.97359      4.20982      3.12003
248.96361      4.27794      3.07931
250.97364      4.26527      3.04721
253.02367      4.33523      3.01382
254.06369      4.37094      2.99073
255.1037      4.32206      2.9729
256.16372      4.35805      2.97715
257.22373      4.39419      2.96306
259.37377      4.46796      2.96637
261.5638      4.54373      2.93917
263.79383      4.62153      2.91066
266.05386      4.60888      2.86857
268.3539      4.68892      2.81241
270.70393      4.7714      2.74833
273.08396      4.75856      2.68421
275.514      4.84362      2.61555
277.98404      4.83023      2.55398
280.50407      4.81574      2.49906
283.06411      4.90404      2.43115
285.67415      4.88862      2.39968
288.33419      4.87182      2.37204
291.03423      4.85319      2.34277
293.79427      4.83328      2.31098
296.60431      4.92618      2.27864
299.47435      4.90518      2.22952
302.39439      4.88223      2.22439
305.37443      4.97893      2.22109
308.41448      4.95469      2.17139
311.51452      4.92842      2.11922
314.67457      5.02892      2.08507
321.19466      4.97079      2.04608
327.99476      5.04339      2.00195
335.08486      5.11758      1.94175
342.49497      5.12951      1.86361
350.23508      5.15312      1.79065
358.3252      5.1749      1.71884
371.20539      5.19653      1.61674
380.31552      5.20234      1.5445
385.03559      5.20292      1.50972
394.84573      5.19937      1.45363
405.16588      5.17971      1.3938
416.04604      5.18889      1.3547
427.52621      5.18406      1.30197
439.65638      5.19293      1.26614
444.37645      5.18417      1.24461
450.84655      5.19594      1.23612
457.49664      5.19227      1.21017
464.34674      5.1973      1.19333
471.41684      5.19471      1.18364
478.69695      5.20421      1.13394
486.20706      5.20562      1.10516
493.94717      5.20429      1.08026
501.94729      5.1905      1.03679
510.21741      5.15955      1.00343
514.44747      5.13173      0.97878
518.74753      5.10924      0.96368
523.12759      5.05334      0.95151
527.57766      5.00194      0.93152
532.10773      4.78218      0.9734
533.25774      4.75473      1.11832
534.40776      4.80129      1.20497
535.55778      4.84439      1.21763
536.71779      4.8504      1.22291
537.87781      4.85255      1.28849
539.04783      4.88503      1.34707
540.22784      4.94445      1.40998
541.40786      5.01188      1.41233
542.58788      5.06825      1.4185
543.77789      5.11746      1.41317
544.97791      5.16715      1.40782
546.17793      5.21712      1.38683
547.37795      5.25958      1.35781
548.58796      5.29462      1.32071
549.80798      5.31819      1.27542
551.028      5.326      1.22969
552.25802      5.31406      1.18355
553.48804      5.29787      1.16888
554.72805      5.28958      1.1581
555.96807      5.27702      1.13108
557.21809      5.26439      1.14021
558.47811      5.25979      1.13319
559.73813      5.26315      1.15055
561.50815      5.26365      1.1291
564.5782      5.26325      1.12487
567.67824      5.27085      1.12048
572.92832      5.28331      1.10283
578.2684      5.29516      1.08429
583.71847      5.30226      1.06489
589.26855      5.30862      1.04906
594.91864      5.31412      1.0324
600.68872      5.32372      1.01964
605.59879      5.32515      1.00772
612.11889      5.33308      0.9905
618.77898      5.34007      0.97727
625.59908      5.34631      0.95816
632.55918      5.3513      0.93791
639.67929      5.36055      0.92184
646.95939      5.36335      0.90479
654.4095      5.36489      0.88671
662.03961      5.36516      0.86756
669.83972      5.36378      0.84722
677.82984      5.36686      0.83764
686.01996      5.36251      0.82123
694.40008      5.36246      0.81002
702.99021      5.36081      0.79801
711.79033      5.36391      0.78512
720.82046      5.36555      0.77811
730.0806      5.37241      0.77046
739.59074      5.37795      0.75505
749.34088      5.38175      0.74584
759.35102      5.39133      0.73586
769.64117      5.3996      0.71737
779.76132      5.40793      0.70469
789.69146      5.41661      0.69027
799.88161      5.41566      0.66654
810.34176      5.42141      0.64989
821.07192      5.42547      0.63209
832.09208      5.42783      0.61311
843.41224      5.4283      0.59285
855.04241      5.42671      0.58075
867.00259      5.42297      0.56775
879.30277      5.41684      0.55377
891.95295      5.42877      0.53873
899.72306      5.43944      0.53762
   907.943      5.27049     0.377113    
   922.628      5.26617     0.365835    
   937.551      5.26180     0.355111    
   952.715      5.25754     0.344749    
   968.124      5.25338     0.334727    
   983.783      5.24931     0.324999    
   999.695      5.24536     0.315525    
   1015.86      5.24154     0.306299    
   1032.29      5.23778     0.297006    
   1048.99      5.23388     0.287954    
   1065.96      5.22991     0.279137    
   1083.20      5.22591     0.270598    
   1100.72      5.22191     0.262319    
   1118.52      5.21792     0.254289    
   1136.61      5.21394     0.246507    
   1155.00      5.20998     0.238961    
   1173.68      5.20605     0.231645    
   1192.66      5.20216     0.224555    
   1211.95      5.19831     0.217682    
   1231.55      5.19450     0.211021    
   1251.47      5.19075     0.204548    
   1271.72      5.18704     0.198261    
   1292.29      5.18336     0.192151    
   1313.19      5.17972     0.186228    
   1334.43      5.17612     0.180488    
   1356.01      5.17257     0.174925    
   1377.94      5.16907     0.169534    
   1400.23      5.16562     0.164310    
   1422.88      5.16223     0.159248    
   1445.89      5.15890     0.154338    
   1469.28      5.15563     0.149571    
   1493.04      5.15243     0.144939    
   1517.19      5.14929     0.140388    
   1541.73      5.14615     0.135973    
   1566.67      5.14305     0.131697    
   1592.01      5.13999     0.127556    
   1617.76      5.13698     0.123544    
   1643.92      5.13402     0.119658    
   1670.51      5.13110     0.115894    
   1697.53      5.12824     0.112248    
   1724.99      5.12544     0.108716    
   1752.89      5.12270     0.105266    
   1781.24      5.11999     0.101916    
   1810.05      5.11732     0.986663E-01
   1839.32      5.11469     0.955176E-01
   1869.07      5.11210     0.924686E-01
   1899.30      5.10955     0.895166E-01
   1930.02      5.10705     0.866612E-01
   1961.24      5.10459     0.838971E-01
   1992.96      5.10216     0.812206E-01
   2025.20      5.09981     0.787027E-01
   2057.95      5.09757     0.761739E-01
   2091.24      5.09532     0.737227E-01
   2125.06      5.09311     0.713481E-01
   2159.43      5.09094     0.690489E-01
   2194.36      5.08881     0.668140E-01
   2229.85      5.08672     0.646543E-01
   2265.92      5.08468     0.625607E-01
   2302.57      5.08267     0.605286E-01
   2339.81      5.08070     0.585635E-01
   2377.66      5.07877     0.566582E-01
   2416.11      5.07689     0.548123E-01
   2455.19      5.07503     0.530246E-01
   2494.90      5.07322     0.512928E-01
   2535.26      5.07144     0.496148E-01
   2576.26      5.06971     0.479897E-01
   2617.93      5.06800     0.464157E-01
   2660.27      5.06633     0.448913E-01
   2703.30      5.06470     0.434149E-01
   2747.03      5.06310     0.419853E-01
   2791.46      5.06154     0.406005E-01
   2836.61      5.06001     0.392606E-01
   2882.49      5.05851     0.379625E-01
   2929.11      5.05705     0.367055E-01
   2976.48      5.05561     0.354884E-01
   3024.63      5.05421     0.343104E-01
   3073.55      5.05284     0.331697E-01
   3123.26      5.05150     0.320658E-01
   3173.78      5.05019     0.309971E-01
   3225.11      5.04891     0.299625E-01
   3277.27      5.04765     0.289616E-01
   3330.28      5.04643     0.279922E-01
   3384.15      5.04523     0.270543E-01
   3438.88      5.04406     0.261471E-01
   3494.50      5.04292     0.252687E-01
   3551.02      5.04180     0.244190E-01
   3608.46      5.04071     0.235963E-01
   3666.82      5.03964     0.228007E-01
   3726.13      5.03860     0.220309E-01
   3786.40      5.03758     0.212856E-01
   3847.64      5.03658     0.205649E-01
   3909.87      5.03561     0.198682E-01
   3973.11      5.03466     0.191937E-01
   4037.38      5.03373     0.185476E-01
   4102.68      5.03283     0.179165E-01
   4169.03      5.03195     0.173072E-01
   4236.46      5.03109     0.167181E-01
   4304.98      5.03024     0.161487E-01
   4374.62      5.02942     0.155980E-01
   4445.37      5.02862     0.150659E-01
   4517.27      5.02784     0.145518E-01
   4590.33      5.02708     0.140547E-01
   4664.58      5.02633     0.135741E-01
   4740.03      5.02560     0.131094E-01
   4816.69      5.02490     0.126607E-01
   4894.60      5.02420     0.122266E-01
   4973.77      5.02353     0.118072E-01
   5054.21      5.02287     0.114019E-01
   5135.96      5.02223     0.110101E-01
   5219.03      5.02161     0.106315E-01
   5303.44      5.02100     0.102655E-01
   5389.22      5.02040     0.991185E-02
   5476.39      5.01982     0.957001E-02
   5564.97      5.01926     0.923971E-02
   5654.98      5.01871     0.892048E-02
   5746.44      5.01817     0.861194E-02
   5839.39      5.01765     0.831380E-02
   5933.83      5.01714     0.802574E-02
   6029.81      5.01665     0.774736E-02
   6127.33      5.01616     0.747830E-02
   6226.44      5.01569     0.721834E-02
   6327.15      5.01523     0.696712E-02
   6429.48      5.01478     0.672443E-02
   6533.48      5.01435     0.648984E-02
   6639.15      5.01392     0.626329E-02
   6746.54      5.01351     0.604440E-02
   6855.65      5.01311     0.583287E-02
   6966.54      5.01271     0.562839E-02
   7079.22      5.01233     0.543100E-02
   7193.72      5.01196     0.524026E-02
   7310.07      5.01160     0.505601E-02
   7428.31      5.01124     0.487800E-02
   7548.45      5.01090     0.470595E-02
   7670.54      5.01056     0.453990E-02
   7794.61      5.01024     0.437949E-02
   7920.68      5.00992     0.422456E-02
   8048.79      5.00961     0.407489E-02
   8178.98      5.00931     0.393020E-02
   8311.26      5.00902     0.379062E-02
   8445.69      5.00873     0.365578E-02
   8582.29      5.00845     0.352547E-02
   8721.11      5.00818     0.339979E-02
   8862.16      5.00792     0.327838E-02
   9005.50      5.00766     0.316109E-02
   9151.16      5.00741     0.304783E-02
   9299.17      5.00717     0.293857E-02
   9449.58      5.00693     0.283291E-02
   9602.42      5.00670     0.273103E-02
   9757.73      5.00648     0.263256E-02
   9915.55      5.00626     0.253775E-02
   10075.9      5.00605     0.244607E-02
   10238.9      5.00584     0.235757E-02
   10404.5      5.00564     0.227215E-02
   10572.8      5.00545     0.218970E-02
   10743.8      5.00526     0.211014E-02
   10917.6      5.00507     0.203335E-02
   11094.2      5.00489     0.195925E-02
   11273.6      5.00472     0.188774E-02
   11455.9      5.00455     0.181875E-02
   11641.2      5.00438     0.175219E-02
   11829.5      5.00422     0.168796E-02
   12020.8      5.00406     0.162601E-02
   12215.3      5.00391     0.156625E-02
   12412.8      5.00376     0.150860E-02
   12613.6      5.00362     0.145300E-02
   12817.6      5.00348     0.139938E-02
   13025.0      5.00334     0.134766E-02
   13235.6      5.00321     0.129780E-02
   13449.7      5.00308     0.124972E-02
   13667.2      5.00295     0.120336E-02
   13888.3      5.00283     0.115867E-02
   14112.9      5.00271     0.111559E-02
   14341.2      5.00259     0.107406E-02
   14573.1      5.00248     0.103404E-02
   14808.9      5.00237     0.995465E-03
   15048.4      5.00227     0.958296E-03
   15291.8      5.00216     0.922482E-03
   15539.1      5.00206     0.887977E-03
   15790.4      5.00196     0.854736E-03
   16045.8      5.00187     0.822718E-03
   16305.4      5.00178     0.791879E-03
   16569.1      5.00169     0.762180E-03
   16837.1      5.00160     0.733582E-03
   17109.4      5.00152     0.706047E-03
   17386.1      5.00143     0.679540E-03
   17667.4      5.00135     0.654024E-03
   17953.1      5.00128     0.629466E-03
   18243.5      5.00120     0.605832E-03
   18538.6      5.00113     0.583093E-03
   18838.4      5.00105     0.561215E-03
   19143.1      5.00099     0.540171E-03
   19452.7      5.00092     0.519930E-03
   19767.4      5.00085     0.500466E-03
   20087.1      5.00079     0.481560E-03
   20412.0      5.00073     0.463572E-03
   20742.1      5.00067     0.446275E-03
   21077.6      5.00061     0.429641E-03
   21418.5      5.00055     0.413645E-03
   21765.0      5.00050     0.398260E-03
   22117.0      5.00044     0.383463E-03
   22474.7      5.00039     0.369231E-03
   22838.2      5.00034     0.355541E-03
   23207.6      5.00029     0.342372E-03
   23583.0      5.00025     0.329702E-03
   23964.4      5.00020     0.317515E-03
   24352.0      5.00015     0.305788E-03
   24745.9      5.00011     0.294506E-03
   25146.2      5.00007     0.283650E-03
   25552.9      5.00003     0.273204E-03
   25966.2      4.99999     0.263151E-03
   26386.1      4.99995     0.253477E-03
   26812.9      4.99991     0.244167E-03
   27246.6      4.99988     0.235206E-03
   27687.3      4.99984     0.226582E-03
   28135.1      4.99981     0.218281E-03
   28590.2      4.99977     0.210290E-03
   29052.6      4.99974     0.202598E-03
   29522.5      4.99971     0.195192E-03
   30000.0      4.99968     0.188063E-03
